DTS Sentinel unit serial number:	SN214307Multiplexer serial number:	SNM14295Hardware model number:	SEN2LRSoftware version number:	Sentinel DTS v5.1data status	okinstallation	All Channels Greendifferential loss correction	combinedforward channel	channel 7reverse channel	channel 7 reversedate	2018/01/01time	04:06:43forward acquisition time	600.15reverse acquisition time	600.00gamma	516.3409k internal	0.2621k external	0.2621temperature offset calibration	1.0000default loss term (dB/km)	0.2634temperature slope calibration	NaNmultiplexer offset coefficient	1.0000multiplexer slope coefficient	1.0000fibre end	2030.54T internal ref (°C)	26.03T ext. ref 1 (°C)	12.78T ext. ref 2 (°C)	32.57length (m)	temperature (°C)	forward Stokes	forward anti-Stokes	reverse Stokes	reverse anti-Stokes-293.990	9.914	0.201	-0.030	-0.121	0.090
-292.970	523.330	0.121	-0.190	0.012	-0.071
-291.950	112.343	-0.118	-0.047	0.028	-0.059
-290.930	448.198	-0.086	0.117	0.057	0.067
-289.910	-200.000	0.020	-0.143	0.191	0.224
-288.890	800.000	-0.006	-0.028	-0.136	-0.040
-287.870	264.401	0.111	-0.093	-0.193	-0.035
-286.850	800.000	-0.037	-0.142	0.194	-0.021
-285.830	246.878	0.076	0.060	-0.122	-0.065
-284.810	674.125	-0.079	0.153	0.146	-0.061
-283.790	-200.000	-0.013	-0.166	0.037	0.066
-282.770	86.754	0.139	-0.045	0.097	-0.129
-281.750	111.249	0.076	-0.030	0.004	0.030
-280.730	-152.091	0.115	-0.000	-0.141	-0.006
-279.710	-200.000	-0.003	0.061	-0.270	0.099
-278.690	175.693	-0.104	0.060	0.150	0.020
-277.670	537.179	-0.060	-0.096	0.047	0.058
-276.650	-12.799	0.084	-0.009	-0.229	-0.098
-275.630	55.087	-0.036	0.009	-0.119	0.145
-274.610	242.752	0.149	0.116	0.123	-0.095
-273.590	-200.000	0.001	-0.114	0.205	-0.086
-272.570	262.369	-0.096	0.080	-0.010	-0.183
-271.550	248.033	-0.128	0.102	-0.252	-0.161
-270.530	800.000	-0.016	-0.047	-0.066	0.034
-269.510	265.056	-0.123	0.103	0.123	0.020
-268.491	-200.000	0.007	0.089	0.120	-0.157
-267.471	6.673	0.150	0.021	0.087	-0.171
-266.451	509.020	-0.079	-0.121	-0.119	0.094
-265.431	-200.000	-0.014	-0.161	0.002	-0.072
-264.411	242.740	-0.044	0.034	0.086	-0.082
-263.391	-66.211	-0.061	-0.002	-0.017	-0.066
-262.371	189.408	0.075	-0.046	0.011	0.078
-261.351	800.000	0.021	0.080	-0.053	-0.010
-260.331	421.928	0.045	-0.059	-0.077	0.059
-259.311	578.603	-0.085	-0.145	0.107	-0.118
-258.291	427.530	-0.064	-0.085	-0.060	0.029
-257.271	800.000	-0.039	0.088	-0.054	0.024
-256.251	-200.000	0.010	-0.102	-0.173	-0.026
-255.231	-200.000	0.001	0.051	0.020	0.109
-254.211	155.880	0.077	-0.040	-0.125	-0.055
-253.191	42.957	0.151	0.033	-0.183	0.014
-252.171	-95.217	0.161	0.003	-0.149	-0.070
-251.151	800.000	-0.046	0.108	-0.132	-0.109
-250.131	-1.896	-0.085	-0.011	0.016	0.096
-249.111	97.623	-0.174	0.061	0.140	-0.070
-248.091	124.681	-0.226	0.097	0.053	-0.092
-247.071	245.835	0.047	-0.037	0.095	-0.003
-246.051	129.819	0.210	0.093	0.111	0.089
-245.031	-200.000	0.004	-0.049	0.110	0.127
-244.011	572.259	-0.049	-0.083	0.203	0.102
-242.991	800.000	0.026	-0.075	0.068	-0.098
-241.971	597.211	0.055	0.097	-0.004	-0.098
-240.951	269.260	0.180	-0.154	0.029	-0.047
-239.931	-200.000	-0.008	0.105	0.045	0.112
-238.911	134.411	0.054	0.025	0.033	0.056
-237.891	-34.701	-0.104	0.008	-0.053	0.000
-236.871	448.828	0.057	-0.079	-0.021	0.100
-235.851	207.173	0.150	-0.100	-0.058	0.052
-234.831	-60.291	0.066	0.003	-0.082	-0.042
-233.811	68.013	-0.004	-0.001	0.185	0.093
-232.791	-200.000	-0.019	0.218	0.052	0.206
-231.771	230.139	-0.212	-0.156	-0.099	0.110
-230.751	800.000	-0.035	-0.086	-0.158	0.251
-229.731	800.000	0.047	0.130	0.038	-0.090
-228.711	183.089	0.123	0.073	-0.030	0.165
-227.691	225.965	-0.031	-0.022	0.081	0.058
-226.671	234.523	0.158	0.118	0.247	0.216
-225.651	800.000	0.035	0.146	0.163	0.046
-224.631	266.874	0.408	0.346	0.460	0.248
-223.611	130.872	18.343	8.174	18.581	7.715
-222.591	389.126	69.231	83.583	70.195	81.312
-221.571	492.908	55.710	83.079	56.808	80.656
-220.551	355.102	10.472	11.619	10.459	11.476
-219.531	289.375	5.614	5.140	5.755	4.824
-218.511	330.088	0.775	0.804	0.588	0.770
-217.492	10.146	0.473	0.071	0.814	-0.036
-216.472	101.776	0.139	-0.051	0.027	-0.131
-215.452	366.902	0.142	0.162	0.236	0.067
-214.432	364.050	0.091	0.103	-0.094	-0.177
-213.412	350.230	-0.070	0.077	-0.108	-0.085
-212.392	-200.000	0.014	-0.124	-0.034	0.136
-211.372	377.890	-0.117	0.137	-0.123	0.040
-210.352	800.000	0.040	-0.126	0.088	-0.023
-209.332	38.902	0.127	0.027	0.177	-0.052
-208.312	238.058	0.080	0.061	0.083	0.014
-207.292	336.053	0.155	0.163	0.203	0.115
-206.272	139.561	0.076	0.036	0.161	0.184
-205.252	126.928	0.331	0.144	0.097	0.049
-204.232	-200.000	0.002	0.056	0.011	0.146
-203.212	800.000	0.048	0.179	0.114	-0.189
-202.192	115.106	0.223	0.089	0.178	0.058
-201.172	800.000	0.028	0.066	-0.048	-0.069
-200.152	57.857	0.248	0.063	0.174	0.173
-199.132	198.688	0.135	0.087	0.163	0.295
-198.112	313.136	0.121	0.119	0.004	0.224
-197.092	39.561	0.419	0.089	0.141	0.114
-196.072	334.597	0.226	0.237	0.128	0.544
-195.052	144.011	0.321	0.155	0.115	0.207
-194.032	130.356	0.319	0.142	0.230	0.137
-193.012	219.957	0.207	0.146	0.465	0.084
-191.992	195.226	0.296	0.187	0.389	0.324
-190.972	165.032	0.451	0.245	0.362	0.248
-189.952	278.878	0.349	0.308	0.653	0.356
-188.932	436.946	0.319	0.428	0.338	0.247
-187.912	336.703	0.502	0.530	0.554	0.506
-186.892	118.166	0.673	0.276	0.581	0.363
-185.872	234.572	0.759	0.570	0.802	0.539
-184.852	198.071	0.861	0.552	0.793	0.749
-183.832	239.484	1.129	0.865	0.852	0.731
-182.812	211.629	1.211	0.826	1.372	0.880
-181.792	223.969	1.423	1.024	1.561	1.010
-180.772	201.488	1.752	1.142	1.615	1.154
-179.752	226.374	2.207	1.603	2.026	1.659
-178.732	252.322	2.317	1.864	2.445	1.634
-177.712	230.109	3.037	2.240	3.123	2.394
-176.692	234.926	3.969	2.985	3.933	2.783
-175.672	241.328	4.883	3.767	4.847	3.819
-174.652	245.049	6.267	4.905	6.235	4.805
-173.632	240.495	8.203	6.307	8.047	6.575
-172.612	248.220	10.947	8.672	10.813	8.787
-171.592	256.251	14.930	12.188	14.942	12.144
-170.572	264.624	22.058	18.561	22.105	18.469
-169.552	283.995	36.398	31.561	36.604	31.456
-168.532	291.070	75.623	64.021	75.641	63.902
-167.513	116.473	588.601	228.352	588.855	228.645
-166.493	228.318	6282.784	4844.515	6286.357	4849.314
-165.473	249.547	11735.027	10299.682	11736.240	10301.486
-164.453	253.920	11451.860	9566.674	11452.934	9567.670
-163.433	245.066	11083.931	7981.981	11084.422	7984.093
-162.413	204.158	11216.865	8127.780	11217.730	8128.358
-161.393	184.271	11164.902	8120.946	11165.827	8122.508
-160.373	181.940	11114.228	8076.027	11115.594	8077.679
-159.353	181.480	11070.437	8038.773	11072.298	8039.944
-158.333	185.994	11033.462	8006.852	11034.216	8008.808
-157.313	207.178	11006.888	7984.735	11008.334	7986.051
-156.293	208.310	10985.265	7967.599	10986.212	7969.451
-155.273	193.929	10965.537	7951.686	10965.504	7954.120
-154.253	221.508	10942.529	7933.960	10943.557	7936.526
-153.233	232.242	10924.462	7920.230	10925.230	7922.137
-152.213	195.255	10909.856	7908.712	10910.833	7910.705
-151.193	192.866	10893.916	7896.512	10894.925	7898.457
-150.173	210.062	10882.373	7886.920	10882.756	7887.968
-149.153	231.566	10874.710	7881.083	10874.539	7882.743
-148.133	234.673	10863.733	7875.685	10864.991	7877.632
-147.113	195.328	10849.815	7864.594	10850.406	7865.564
-146.093	197.497	10833.624	7846.489	10834.816	7848.094
-145.073	200.759	10817.794	7832.586	10819.129	7834.975
-144.053	209.376	10803.368	7823.910	10803.804	7825.240
-143.033	234.526	10790.302	7812.905	10791.222	7814.110
-142.013	227.419	10777.313	7803.463	10778.296	7804.715
-140.993	195.180	10765.239	7792.126	10766.781	7793.587
-139.973	221.486	10756.898	7784.348	10757.075	7785.393
-138.953	219.391	10747.114	7778.292	10747.736	7780.083
-137.933	205.683	10738.988	7772.729	10739.706	7773.545
-136.913	224.769	10730.630	7768.230	10731.397	7770.105
-135.893	232.491	10721.082	7761.869	10722.017	7763.647
-134.873	224.663	10710.366	7752.961	10711.198	7754.788
-133.853	203.490	10699.917	7745.138	10701.593	7747.446
-132.833	180.957	10688.222	7735.632	10688.994	7737.649
-131.813	162.141	10676.163	7725.659	10677.059	7727.768
-130.793	175.152	10662.724	7714.197	10664.136	7716.409
-129.773	186.082	10650.411	7704.202	10651.289	7705.454
-128.753	182.640	10640.469	7696.266	10642.677	7698.810
-127.733	202.564	10637.691	7694.279	10640.341	7696.515
-126.713	223.123	10635.400	7693.720	10636.363	7695.573
-125.693	199.669	10626.584	7687.905	10627.724	7689.206
-124.673	181.984	10616.801	7680.871	10618.610	7681.683
-123.653	181.909	10611.524	7677.369	10612.054	7678.939
-122.633	218.534	10602.139	7671.031	10603.203	7671.876
-121.613	208.395	10586.441	7655.998	10585.953	7656.994
-120.593	162.294	10572.936	7641.967	10573.808	7643.638
-119.573	141.511	10566.197	7637.302	10567.001	7638.154
-118.553	161.879	10560.206	7633.308	10561.485	7634.484
-117.533	184.589	10554.225	7629.455	10555.068	7631.373
-116.514	193.984	10542.442	7622.392	10543.876	7623.418
-115.494	184.171	10529.747	7611.966	10532.215	7613.103
-114.474	169.709	10524.122	7605.087	10524.800	7606.982
-113.454	178.964	10516.312	7600.831	10516.695	7602.676
-112.434	190.793	10499.806	7586.943	10500.670	7588.921
-111.414	185.138	10486.494	7574.492	10488.404	7575.439
-110.394	170.398	10480.848	7570.388	10482.527	7571.445
-109.374	164.340	10475.784	7567.355	10477.396	7569.505
-108.354	186.206	10468.448	7561.476	10468.685	7563.128
-107.334	195.342	10458.895	7552.666	10459.710	7554.921
-106.314	174.692	10451.710	7548.070	10452.132	7548.782
-105.294	186.813	10446.388	7544.312	10447.124	7545.933
-104.274	188.302	10436.578	7537.519	10436.152	7538.776
-103.254	194.553	10427.453	7528.171	10428.735	7529.529
-102.234	166.160	10423.032	7524.147	10424.229	7526.187
-101.214	165.559	10415.725	7519.354	10416.591	7521.671
-100.194	184.199	10411.421	7516.856	10412.749	7518.101
-99.174	165.494	10408.863	7515.961	10409.262	7517.823
-98.154	153.757	10400.058	7510.251	10401.466	7511.894
-97.134	155.442	10388.461	7498.877	10389.637	7500.703
-96.114	154.277	10383.765	7494.999	10384.807	7496.686
-95.094	176.114	10383.832	7496.256	10384.572	7497.959
-94.074	171.871	10381.411	7494.754	10381.366	7495.701
-93.054	169.624	10374.897	7491.778	10376.220	7493.003
-92.034	152.413	10370.021	7487.211	10371.424	7489.041
-91.014	155.036	10364.992	7483.903	10366.728	7484.638
-89.994	150.778	10362.257	7479.131	10363.387	7480.556
-88.974	155.259	10355.158	7475.140	10357.519	7476.146
-87.954	151.004	10351.830	7471.702	10353.151	7473.329
-86.934	152.024	10347.791	7470.261	10348.401	7470.869
-85.914	147.653	10340.934	7464.478	10341.421	7466.137
-84.894	130.954	10335.906	7460.429	10336.769	7461.864
-83.874	133.571	10335.742	7459.928	10336.282	7461.545
-82.854	144.602	10330.562	7458.267	10331.462	7459.599
-81.834	147.157	10324.310	7453.773	10325.559	7454.544
-80.814	147.222	10318.524	7449.843	10319.751	7451.313
-79.794	139.809	10312.098	7445.574	10313.260	7446.657
-78.774	147.568	10306.937	7438.353	10306.874	7440.068
-77.754	151.427	10303.317	7435.604	10304.289	7436.967
-76.734	142.748	10301.572	7435.711	10302.911	7436.663
-75.714	148.219	10296.758	7433.539	10297.501	7435.327
-74.694	146.834	10291.860	7430.817	10292.966	7431.610
-73.674	154.533	10289.405	7428.306	10289.959	7429.969
-72.654	158.210	10286.697	7428.224	10287.158	7429.277
-71.634	146.355	10286.028	7428.060	10287.037	7429.393
-70.614	142.261	10284.368	7427.787	10284.796	7428.993
-69.594	133.869	10280.821	7425.473	10281.610	7426.489
-68.574	131.333	10276.580	7421.618	10277.359	7423.035
-67.554	142.894	10268.395	7416.337	10269.913	7417.736
-66.535	141.706	10259.260	7408.577	10259.772	7409.528
-65.515	157.987	10249.377	7399.238	10249.885	7400.691
-64.495	176.434	10244.770	7395.390	10245.530	7396.300
-63.475	144.506	10243.943	7396.199	10244.806	7397.745
-62.455	152.183	10238.480	7393.549	10239.427	7394.000
-61.435	154.466	10228.768	7385.976	10229.682	7387.370
-60.415	151.496	10070.138	7298.731	10071.689	7300.330
-59.395	148.524	9802.349	7089.211	9804.209	7091.237
-58.375	181.936	9652.008	6894.145	9653.677	6896.087
-57.355	800.000	9610.142	6825.899	9611.774	6828.064
-56.335	-18.139	9599.978	6823.298	9601.095	6825.258
-55.315	25.806	9584.805	6811.786	9586.515	6813.560
-54.295	51.117	9500.079	6774.437	9503.528	6776.015
-53.275	43.181	9022.809	6571.943	9026.421	6569.582
-52.255	30.255	8322.241	6096.661	8202.880	5966.812
-51.235	25.543	7996.115	5762.499	7726.979	5481.195
-50.215	25.525	7925.990	5718.789	7627.837	5407.033
-49.195	25.827	7858.703	5690.536	7558.865	5370.772
-48.175	25.881	7810.754	5659.518	7512.380	5335.133
-47.155	25.893	7774.008	5632.893	7472.301	5305.373
-46.135	25.926	7740.509	5611.366	7436.119	5278.936
-45.115	25.936	7709.887	5588.665	7404.354	5255.439
-44.095	25.939	7681.147	5568.176	7376.412	5234.227
-43.075	25.932	7655.882	5548.908	7353.868	5216.219
-42.055	25.911	7634.676	5534.107	7337.473	5204.945
-41.035	25.909	7619.331	5522.866	7322.758	5196.849
-40.015	25.941	7600.332	5511.366	7305.430	5185.473
-38.995	25.992	7581.635	5497.167	7288.747	5173.070
-37.975	26.017	7568.662	5487.676	7276.859	5164.295
-36.955	26.002	7559.109	5481.791	7264.097	5156.962
-35.935	25.965	7545.689	5472.680	7247.185	5146.204
-34.915	25.962	7529.517	5461.123	7223.978	5127.969
-33.895	25.964	7512.156	5448.081	7203.546	5110.283
-32.875	25.949	7493.965	5433.562	7190.661	5099.301
-31.855	25.937	7481.515	5421.984	7177.699	5090.545
-30.835	25.960	7473.207	5416.532	7164.954	5081.534
-29.815	25.987	7464.136	5411.704	7153.970	5073.019
-28.795	25.991	7455.770	5405.741	7142.707	5065.905
-27.775	26.009	7446.610	5399.143	7129.217	5055.494
-26.755	26.037	7436.065	5392.233	7117.958	5045.753
-25.735	26.002	7425.406	5383.568	7108.990	5039.537
-24.715	26.015	7417.209	5377.715	7097.270	5031.960
-23.695	26.024	7410.606	5373.426	7082.789	5021.908
-22.675	26.019	7405.884	5369.961	7069.963	5011.601
-21.655	26.069	7400.285	5369.100	7061.366	5003.947
-20.635	26.089	7390.465	5361.845	7056.381	5001.039
-19.615	26.089	7379.250	5352.488	7050.119	4997.867
-18.595	26.069	7372.294	5347.346	7040.254	4991.555
-17.575	26.106	7364.237	5342.140	7026.385	4980.667
-16.555	26.109	7353.213	5333.495	7012.001	4969.124
-15.536	26.075	7345.450	5326.476	7000.023	4959.137
-14.516	26.042	7339.579	5321.967	6989.245	4950.396
-13.496	26.045	7332.839	5317.753	6982.756	4944.319
-12.476	26.065	7325.113	5312.861	6975.550	4939.394
-11.456	26.083	7315.647	5305.638	6966.546	4932.132
-10.436	26.055	7304.674	5297.151	6958.549	4926.462
-9.416	26.041	7297.048	5292.450	6949.167	4919.044
-8.396	26.055	7288.103	5285.211	6942.342	4912.935
-7.376	26.036	7279.039	5277.527	6942.895	4914.211
-6.356	26.022	7275.291	5274.833	6943.080	4916.110
-5.336	26.057	7268.015	5271.319	6936.339	4912.991
-4.316	26.069	7257.486	5264.079	6927.474	4905.710
-3.296	26.012	7247.444	5255.573	6921.480	4900.662
-2.276	26.010	7235.796	5246.225	6919.066	4898.111
-1.256	25.891	7225.919	5239.068	6915.715	4897.086
-0.236	25.309	7215.479	5230.003	6906.734	4889.653
0.784	25.375	7147.486	5187.585	6842.069	4851.239
1.804	25.593	6973.670	5066.867	6726.343	4755.247
2.824	24.772	6758.751	4885.096	6652.801	4670.065
3.844	24.028	6635.073	4766.131	6628.187	4636.977
4.864	23.551	6605.204	4734.366	6609.728	4618.605
5.884	23.249	6587.623	4712.926	6590.249	4596.474
6.904	23.102	6563.332	4677.547	6507.944	4541.464
7.924	22.959	6526.852	4646.001	6307.410	4401.428
8.944	21.573	6491.384	4637.698	6160.989	4291.694
9.964	19.368	6453.829	4611.436	6125.253	4260.704
10.984	16.732	6385.392	4449.780	6066.755	4115.746
12.004	14.678	6334.875	4298.623	6015.326	3975.746
13.024	14.583	6319.126	4281.881	5992.735	3953.285
14.044	14.672	6299.546	4274.700	5975.567	3944.674
15.064	14.677	6276.491	4258.888	5966.717	3939.730
16.084	14.673	6255.424	4243.555	5961.414	3936.677
17.104	14.667	6241.437	4233.285	5954.684	3933.037
18.124	14.744	6231.695	4228.206	5951.039	3932.438
19.144	15.806	6222.964	4224.224	5945.681	3929.245
20.164	19.612	6212.830	4218.696	5931.664	3922.011
21.184	24.508	6251.299	4323.389	5947.246	3955.447
22.204	29.704	6322.621	4606.377	6018.686	4203.382
23.224	32.863	6343.113	4786.770	6067.509	4439.042
24.244	33.019	6332.088	4786.807	6063.618	4464.398
25.264	33.034	6320.686	4779.271	6048.913	4455.497
26.284	33.039	6308.712	4771.424	6032.081	4440.820
27.304	33.007	6298.582	4764.058	6020.772	4431.465
28.324	32.286	6289.345	4756.219	6011.612	4425.666
29.344	28.486	6280.715	4748.264	6003.017	4417.978
30.364	24.781	6228.923	4662.181	5996.258	4412.060
31.384	21.799	6133.032	4366.041	5952.198	4334.544
32.404	20.694	6109.932	4236.961	5864.638	4062.283
33.424	22.924	6140.489	4364.370	5839.372	3940.574
34.443	23.590	6142.620	4398.119	5864.211	4054.585
35.463	23.175	6188.212	4409.605	5868.161	4087.393
36.483	23.280	6243.125	4455.219	5907.737	4098.222
37.503	23.565	6252.739	4484.384	5954.742	4137.305
38.523	22.310	6251.543	4488.008	5963.677	4163.716
39.543	19.913	6239.459	4474.585	5961.394	4165.748
40.563	16.966	6191.003	4350.162	5952.501	4154.249
41.583	14.345	6143.367	4188.114	5908.442	4041.510
42.603	13.502	6132.054	4136.054	5863.737	3892.805
43.623	13.433	6126.336	4129.945	5855.072	3844.565
44.643	13.431	6119.425	4125.316	5847.847	3838.162
45.663	13.405	6116.275	4121.697	5839.189	3830.573
46.683	13.421	6114.288	4119.716	5833.763	3824.849
47.703	13.432	6110.981	4118.006	5829.582	3822.077
48.723	13.441	6108.382	4115.722	5825.691	3820.067
49.743	13.427	6106.431	4113.525	5821.460	3815.947
50.763	13.462	6101.574	4110.761	5819.403	3813.159
51.783	13.700	6097.375	4106.159	5820.134	3813.811
52.803	13.900	6095.556	4106.092	5818.272	3813.614
53.823	13.992	6100.485	4128.660	5812.990	3810.126
54.843	13.851	6098.503	4133.417	5818.253	3830.668
55.863	13.387	6089.234	4106.220	5819.275	3838.057
56.883	13.182	6087.690	4094.612	5809.758	3813.434
57.903	13.152	6087.984	4094.507	5807.723	3801.212
58.923	13.137	6086.231	4092.988	5805.875	3799.653
59.943	13.107	6081.632	4086.877	5802.796	3797.023
60.963	13.055	6077.241	4081.331	5797.305	3790.434
61.983	13.022	6074.864	4081.170	5794.724	3785.413
63.003	12.459	6075.164	4082.352	5793.510	3786.043
64.023	11.447	6072.513	4078.826	5793.264	3786.846
65.043	10.114	6050.118	4023.741	5789.559	3783.462
66.063	8.888	6028.628	3953.371	5768.037	3734.016
67.083	8.264	6024.120	3929.965	5746.309	3667.510
68.103	7.606	6023.624	3925.885	5741.005	3643.595
69.123	6.795	6012.274	3904.735	5736.122	3637.747
70.143	6.015	5994.745	3858.961	5722.971	3617.042
71.163	5.547	5982.404	3825.993	5706.906	3574.214
72.183	5.475	5974.324	3817.983	5697.328	3543.907
73.203	5.445	5969.948	3813.868	5694.567	3541.178
74.223	5.405	5969.276	3811.957	5691.099	3538.949
75.243	5.486	5969.960	3814.632	5682.902	3532.141
76.263	5.466	5970.179	3814.159	5677.658	3530.229
77.283	5.471	5969.329	3814.344	5672.977	3526.200
78.303	5.475	5967.546	3812.760	5667.265	3522.837
79.323	5.458	5966.055	3810.586	5665.005	3521.082
80.343	5.573	5964.958	3811.363	5660.271	3516.953
81.363	6.053	5961.865	3808.698	5654.616	3514.662
82.383	6.730	5963.988	3814.865	5650.553	3510.030
83.403	7.494	5975.323	3851.690	5648.621	3512.670
84.422	8.062	5981.325	3884.722	5655.246	3542.181
85.442	8.106	5979.667	3889.407	5660.993	3572.386
86.462	8.017	5973.846	3882.956	5659.372	3576.598
87.482	8.001	5967.507	3875.071	5656.727	3573.914
88.502	7.995	5964.697	3872.084	5650.873	3567.029
89.522	8.003	5963.804	3874.041	5650.659	3566.155
90.542	7.923	5961.055	3871.474	5649.627	3568.316
91.562	7.828	5957.292	3865.278	5642.137	3561.646
92.582	7.798	5950.860	3856.533	5636.593	3553.996
93.602	7.869	5943.866	3851.555	5630.641	3546.700
94.622	7.986	5939.070	3851.754	5630.579	3545.006
95.642	8.096	5936.022	3852.306	5631.612	3549.075
96.662	8.251	5934.613	3852.779	5630.636	3552.171
