DTS Sentinel unit serial number:	SN214307Multiplexer serial number:	SNM14295Hardware model number:	SEN2LRSoftware version number:	Sentinel DTS v5.1data status	okinstallation	All Channels Greendifferential loss correction	combinedforward channel	channel 7reverse channel	channel 7 reversedate	2018/01/01time	01:46:42forward acquisition time	599.87reverse acquisition time	599.99gamma	516.3409k internal	0.2622k external	0.2622temperature offset calibration	1.0000default loss term (dB/km)	0.2634temperature slope calibration	NaNmultiplexer offset coefficient	1.0000multiplexer slope coefficient	1.0000fibre end	2030.54T internal ref (°C)	26.07T ext. ref 1 (°C)	12.80T ext. ref 2 (°C)	32.60length (m)	temperature (°C)	forward Stokes	forward anti-Stokes	reverse Stokes	reverse anti-Stokes-293.990	154.778	-0.197	0.103	0.109	-0.100
-292.970	138.164	-0.191	0.090	0.083	0.073
-291.950	-200.000	-0.005	-0.153	-0.041	-0.024
-290.930	654.651	0.080	0.153	0.059	-0.089
-289.910	194.282	0.029	-0.018	0.143	-0.313
-288.890	62.288	0.096	-0.026	0.101	0.082
-287.870	165.656	0.024	0.013	0.080	0.118
-286.850	558.103	0.064	0.107	-0.062	0.063
-285.830	428.536	-0.034	0.045	0.050	-0.112
-284.810	800.000	-0.009	-0.049	-0.095	0.072
-283.790	278.612	0.070	-0.063	0.141	-0.159
-282.770	120.838	-0.065	-0.028	0.012	0.029
-281.750	-200.000	0.007	0.072	0.108	-0.016
-280.730	458.703	-0.041	0.058	-0.099	-0.069
-279.710	800.000	0.040	0.144	-0.033	0.102
-278.690	117.961	0.110	-0.046	-0.099	0.037
-277.670	800.000	0.068	-0.219	0.200	-0.030
-276.650	-200.000	0.021	0.157	-0.132	0.011
-275.630	426.460	0.044	-0.059	-0.010	0.037
-274.610	-100.702	0.068	-0.001	0.079	0.001
-273.590	569.536	-0.029	-0.050	-0.061	-0.060
-272.570	800.000	-0.023	0.115	0.062	-0.017
-271.550	718.834	-0.060	0.123	0.132	0.047
-270.530	754.349	-0.024	0.050	-0.066	0.117
-269.510	755.106	-0.006	-0.013	-0.048	-0.024
-268.491	110.294	0.084	-0.033	-0.100	0.071
-267.471	800.000	0.055	0.125	0.010	-0.044
-266.451	426.636	-0.032	-0.042	-0.050	0.022
-265.431	69.908	0.113	-0.032	-0.106	-0.056
-264.411	800.000	0.055	-0.280	0.028	-0.076
-263.391	33.450	-0.144	0.029	-0.037	-0.144
-262.371	486.948	-0.110	-0.164	0.018	0.094
-261.351	256.047	-0.078	-0.064	0.031	0.075
-260.331	800.000	-0.026	-0.083	-0.019	-0.066
-259.311	236.936	0.050	0.038	0.079	0.106
-258.291	156.722	0.137	0.072	0.125	0.051
-257.271	-200.000	-0.021	0.179	-0.129	-0.073
-256.251	165.310	0.058	0.032	-0.045	-0.015
-255.231	-7.633	0.153	-0.018	0.112	-0.010
-254.211	334.252	0.031	-0.033	0.052	-0.009
-253.191	-200.000	-0.005	-0.037	-0.159	0.058
-252.171	800.000	0.031	0.110	-0.086	-0.218
-251.151	659.138	0.067	-0.128	0.008	-0.020
-250.131	650.936	-0.051	0.097	0.165	-0.052
-249.111	535.326	0.151	-0.245	0.145	0.041
-248.091	230.339	0.092	-0.069	-0.082	-0.076
-247.071	652.712	-0.047	-0.089	-0.032	0.171
-246.051	800.000	0.012	0.043	0.043	-0.222
-245.031	800.000	-0.100	0.259	0.036	0.033
-244.011	186.900	-0.112	0.069	0.147	-0.152
-242.991	466.621	0.090	0.130	0.024	-0.014
-241.971	-200.000	-0.000	-0.018	-0.216	0.067
-240.951	137.506	0.054	0.025	0.093	0.011
-239.931	137.352	-0.255	0.120	0.101	-0.016
-238.911	800.000	-0.015	-0.052	0.043	-0.167
-237.891	504.838	0.036	0.056	-0.135	0.225
-236.871	151.466	-0.023	0.012	0.033	0.068
-235.851	-123.831	-0.092	0.001	0.062	0.055
-234.831	86.985	-0.201	-0.066	0.033	0.068
-233.811	150.932	-0.081	0.042	-0.083	0.042
-232.791	800.000	0.039	-0.174	-0.103	-0.057
-231.771	181.852	0.092	-0.055	-0.022	0.092
-230.751	405.489	-0.086	0.109	-0.095	-0.047
-229.731	61.460	0.108	-0.029	0.021	0.081
-228.711	1.798	0.217	-0.030	0.083	0.178
-227.691	60.186	0.175	0.046	-0.060	-0.152
-226.671	800.000	0.093	0.304	0.068	0.060
-225.651	-200.000	0.027	0.169	0.108	0.149
-224.631	378.206	0.445	0.530	0.335	0.476
-223.611	127.957	19.157	8.499	18.924	8.735
-222.591	390.806	71.061	87.365	70.098	88.927
-221.571	500.532	56.478	86.573	56.056	88.494
-220.551	439.792	10.738	14.691	10.562	14.734
-219.531	426.459	5.869	7.811	6.032	8.103
-218.511	429.465	0.810	1.085	0.611	1.235
-217.492	130.296	0.472	0.213	0.463	0.215
-216.472	800.000	0.053	-0.232	-0.038	-0.018
-215.452	461.026	0.185	0.263	0.038	0.123
-214.432	-200.000	0.022	0.143	-0.054	-0.108
-213.412	416.329	-0.099	-0.129	-0.067	0.066
-212.392	231.079	0.023	-0.017	-0.057	-0.066
-211.372	193.603	-0.068	0.044	-0.032	0.018
-210.352	-200.000	-0.003	0.075	-0.257	0.073
-209.332	-200.000	0.006	0.104	0.002	0.108
-208.312	-56.414	0.073	-0.004	-0.011	0.136
-207.292	445.882	-0.064	0.088	-0.033	0.173
-206.272	219.774	0.215	0.154	0.136	-0.131
-205.252	800.000	0.030	0.112	0.004	0.062
-204.232	800.000	-0.034	0.099	0.093	-0.273
-203.212	276.798	-0.079	-0.070	-0.073	0.015
-202.192	800.000	0.026	-0.105	0.113	0.028
-201.172	228.218	0.093	0.069	-0.109	-0.058
-200.152	800.000	0.123	0.297	0.032	0.102
-199.132	745.152	0.160	0.338	0.032	0.164
-198.112	800.000	0.102	0.233	0.222	0.046
-197.092	330.267	0.178	0.187	0.133	0.151
-196.072	191.095	0.271	0.171	0.156	0.277
-195.052	800.000	0.056	0.277	0.274	-0.061
-194.032	289.174	0.241	0.224	0.161	0.158
-193.012	103.766	0.204	0.077	0.224	0.044
-191.992	206.669	0.309	0.209	0.306	0.074
-190.972	186.764	0.253	0.156	0.318	0.287
-189.952	292.929	0.377	0.354	0.330	0.226
-188.932	491.389	0.270	0.407	0.503	0.276
-187.912	224.926	0.589	0.432	0.312	0.360
-186.892	241.571	0.642	0.502	0.670	0.597
-185.872	260.239	0.769	0.646	0.705	0.453
-184.852	217.940	0.733	0.521	0.624	0.748
-183.832	275.198	1.073	0.950	1.014	0.619
-182.812	243.610	1.161	0.917	1.338	0.949
-181.792	186.409	1.492	0.918	1.551	0.991
-180.772	261.042	1.694	1.427	1.549	1.093
-179.752	242.683	2.195	1.726	2.015	1.507
-178.732	256.785	2.415	2.004	2.590	1.985
-177.712	236.206	3.057	2.344	3.098	2.631
-176.692	225.505	4.061	2.981	3.985	3.003
-175.672	233.159	5.029	3.810	4.949	3.754
-174.652	233.270	6.422	4.867	6.368	4.736
-173.632	243.966	8.247	6.519	8.302	6.371
-172.612	245.445	11.173	8.883	11.019	8.999
-171.592	253.893	15.316	12.571	15.197	12.487
-170.572	260.285	22.217	18.669	22.457	18.699
-169.552	265.929	36.970	31.984	37.054	31.910
-168.532	229.084	76.331	64.510	76.365	64.332
-167.513	98.260	594.887	231.062	593.941	230.697
-166.493	232.335	6291.306	4851.939	6292.527	4854.507
-165.473	247.207	11733.944	10301.181	11734.964	10303.489
-164.453	231.896	11432.436	9550.240	11436.657	9554.012
-163.433	195.156	11054.209	7958.204	11061.428	7964.247
-162.413	185.376	11187.778	8103.217	11194.620	8108.794
-161.393	188.510	11134.112	8095.475	11141.429	8101.966
-160.373	194.258	11083.508	8050.372	11092.103	8056.656
-159.353	215.584	11039.515	8013.626	11047.294	8019.877
-158.333	184.914	11001.887	7981.752	11010.738	7988.110
-157.313	179.189	10975.248	7958.828	10983.385	7965.236
-156.293	175.770	10953.798	7942.508	10962.254	7948.952
-155.273	209.222	10933.737	7926.704	10941.033	7933.045
-154.253	204.395	10909.698	7908.371	10917.265	7915.330
-153.233	163.784	10891.366	7893.616	10898.601	7899.502
-152.213	170.008	10877.432	7882.901	10884.238	7889.640
-151.193	175.930	10861.441	7870.674	10869.716	7877.156
-150.173	175.082	10849.714	7861.078	10857.694	7867.871
-149.153	185.726	10842.176	7855.859	10849.815	7862.487
-148.133	187.747	10830.460	7850.822	10840.100	7856.611
-147.113	198.081	10816.160	7838.896	10825.246	7845.570
-146.093	186.965	10801.364	7821.609	10809.477	7827.780
-145.073	194.886	10785.025	7807.948	10793.693	7813.988
-144.053	177.601	10770.694	7798.690	10779.229	7805.420
-143.033	215.025	10757.204	7787.585	10765.135	7793.699
-142.013	232.881	10744.432	7777.958	10752.530	7784.038
-140.993	177.268	10733.740	7767.749	10741.035	7773.173
-139.973	179.573	10724.555	7760.572	10733.322	7766.088
-138.953	201.560	10714.491	7753.702	10723.459	7759.313
-137.933	208.923	10705.772	7747.497	10712.872	7753.126
-136.913	213.335	10698.050	7742.864	10705.740	7749.127
-135.893	187.287	10687.563	7736.888	10696.456	7743.188
-134.873	194.558	10676.843	7727.486	10685.394	7733.794
-133.853	208.969	10667.259	7719.256	10674.164	7725.626
-132.833	173.782	10654.401	7709.965	10662.656	7716.590
-131.813	166.604	10641.478	7700.348	10650.959	7706.005
-130.793	197.386	10629.651	7688.444	10637.932	7694.750
-129.773	175.492	10615.312	7677.090	10624.441	7683.606
-128.753	172.604	10606.704	7669.921	10615.167	7675.983
-127.733	175.079	10604.412	7666.786	10612.380	7674.048
-126.713	178.163	10599.711	7666.789	10609.289	7673.105
-125.693	182.354	10591.800	7661.125	10601.372	7667.576
-124.673	181.522	10584.151	7654.942	10591.701	7660.818
-123.653	160.689	10579.932	7653.092	10586.765	7659.191
-122.633	174.789	10571.000	7647.425	10578.373	7653.151
-121.613	187.799	10554.049	7632.264	10561.063	7638.272
-120.593	207.451	10540.939	7618.541	10548.971	7624.678
-119.573	168.860	10533.179	7613.691	10542.556	7619.341
-118.553	158.757	10528.095	7609.820	10536.444	7614.705
-117.533	153.432	10521.431	7605.265	10530.097	7611.731
-116.514	176.853	10510.149	7597.518	10518.267	7603.922
-115.494	157.766	10496.899	7586.387	10505.588	7592.986
-114.474	176.706	10489.852	7581.123	10498.272	7587.231
-113.454	172.864	10482.765	7577.053	10490.928	7583.284
-112.434	152.052	10467.396	7563.659	10476.321	7569.798
-111.414	153.658	10454.660	7550.073	10463.071	7556.563
-110.394	157.114	10447.824	7545.116	10456.163	7551.483
-109.374	150.783	10442.534	7543.430	10451.110	7549.791
-108.354	189.885	10434.773	7537.388	10442.407	7543.377
-107.334	173.761	10425.307	7527.758	10433.099	7534.306
-106.314	182.486	10417.625	7521.937	10426.798	7528.405
-105.294	170.279	10413.117	7520.476	10421.820	7526.286
-104.274	164.523	10403.176	7512.532	10412.087	7519.209
-103.254	154.738	10394.561	7504.658	10402.112	7510.134
-102.234	154.694	10390.138	7500.151	10398.623	7506.623
-101.214	166.982	10383.130	7496.399	10391.526	7502.192
-100.194	177.462	10380.278	7493.296	10388.705	7499.250
-99.174	165.474	10377.217	7492.661	10385.302	7498.779
-98.154	182.875	10367.072	7485.734	10375.748	7492.094
-97.134	200.964	10354.873	7475.088	10363.562	7481.326
-96.114	189.334	10350.029	7470.032	10358.558	7476.599
-95.094	163.431	10351.396	7472.647	10359.491	7478.684
-94.074	165.596	10347.694	7470.206	10356.548	7476.331
-93.054	156.810	10341.277	7465.771	10349.978	7472.395
-92.034	161.676	10336.193	7462.724	10345.081	7468.621
-91.014	144.268	10332.565	7458.891	10341.308	7464.759
-89.994	150.846	10328.774	7455.018	10336.985	7460.857
-88.974	153.927	10322.762	7449.897	10331.637	7456.232
-87.954	158.687	10319.988	7448.674	10328.464	7454.966
-86.934	158.459	10316.792	7448.569	10325.437	7454.138
-85.914	144.696	10309.731	7443.079	10317.754	7448.253
-84.894	146.803	10305.899	7437.710	10313.445	7443.230
-83.874	146.741	10306.112	7438.333	10312.503	7444.269
-82.854	142.480	10300.934	7437.518	10308.483	7442.833
-81.834	141.438	10295.127	7432.719	10302.969	7438.023
-80.814	129.227	10288.890	7429.760	10296.846	7435.510
-79.794	133.509	10283.381	7425.309	10291.395	7430.857
-78.774	148.822	10277.560	7419.225	10285.405	7424.421
-77.754	156.577	10276.009	7417.259	10282.722	7422.251
-76.734	161.248	10274.255	7416.635	10281.923	7421.754
-75.714	160.240	10268.947	7413.879	10276.619	7419.528
-74.694	134.034	10263.870	7412.211	10270.808	7416.933
-73.674	135.975	10262.040	7410.536	10269.445	7415.419
-72.654	143.714	10260.915	7410.039	10268.186	7414.970
-71.634	142.329	10259.831	7409.773	10266.367	7414.917
-70.614	145.440	10256.939	7409.088	10265.410	7414.762
-69.594	161.106	10252.932	7406.306	10260.697	7411.894
-68.574	146.356	10248.897	7403.739	10256.719	7408.907
-67.554	141.106	10242.361	7398.166	10249.683	7404.074
-66.535	158.592	10232.469	7390.646	10241.432	7396.201
-65.515	141.447	10223.806	7382.146	10230.852	7387.539
-64.495	142.407	10218.487	7379.091	10226.616	7383.835
-63.475	141.003	10217.149	7378.431	10225.428	7383.831
-62.455	147.592	10211.586	7374.764	10220.955	7380.123
-61.435	136.271	10200.733	7368.059	10209.336	7373.036
-60.415	153.651	10035.263	7276.212	10043.321	7281.098
-59.395	173.273	9762.317	7061.774	9770.020	7067.503
-58.375	163.301	9610.336	6864.929	9618.423	6871.281
-57.355	-200.000	9566.606	6796.577	9575.287	6802.363
-56.335	-14.098	9556.027	6793.099	9564.750	6798.541
-55.315	27.115	9541.625	6781.899	9549.393	6787.122
-54.295	51.322	9455.825	6746.030	9464.808	6749.835
-53.275	43.253	8970.929	6538.701	8984.747	6540.833
-52.255	30.399	8253.690	6049.100	8157.583	5938.401
-51.235	25.760	7913.361	5711.985	7679.862	5445.811
-50.215	25.569	7839.041	5656.086	7579.604	5363.478
-49.195	25.742	7769.676	5617.851	7506.454	5331.242
-48.175	25.890	7718.853	5593.096	7456.703	5292.753
-47.155	25.900	7680.064	5565.346	7415.072	5262.732
-46.135	25.934	7648.443	5543.934	7378.726	5236.050
-45.115	25.928	7619.291	5522.680	7346.523	5212.411
-44.095	25.961	7591.136	5502.610	7316.750	5190.376
-43.075	25.963	7563.853	5483.047	7290.046	5170.135
-42.055	25.949	7538.991	5464.298	7270.758	5155.133
-41.035	25.960	7522.881	5453.524	7256.479	5146.582
-40.015	25.978	7506.779	5443.537	7238.845	5136.320
-38.995	25.952	7487.750	5428.688	7222.552	5124.425
-37.975	25.966	7474.537	5419.158	7209.825	5114.628
-36.955	25.992	7464.270	5413.337	7197.117	5107.783
-35.935	26.003	7449.043	5402.630	7179.927	5097.599
-34.915	25.997	7433.636	5391.307	7152.777	5076.170
-33.895	26.017	7417.569	5378.659	7128.906	5056.459
-32.875	26.029	7399.464	5365.101	7114.831	5043.708
-31.855	26.002	7384.678	5353.198	7104.268	5036.328
-30.835	25.988	7375.329	5345.654	7091.566	5028.262
-29.815	26.029	7365.242	5339.860	7082.188	5020.413
-28.795	26.007	7357.413	5334.012	7071.077	5012.966
-27.775	26.001	7348.170	5328.796	7056.560	5002.739
-26.755	26.017	7336.497	5320.026	7043.860	4991.610
-25.735	26.041	7322.597	5309.930	7031.579	4983.460
-24.715	25.999	7314.856	5303.046	7017.263	4972.934
-23.695	26.025	7308.376	5298.582	7003.835	4962.531
-22.675	26.072	7302.229	5295.936	6994.215	4955.556
-21.655	26.132	7296.643	5293.460	6985.593	4948.835
-20.635	26.117	7285.395	5285.122	6978.272	4943.621
-19.615	26.084	7273.624	5275.004	6974.316	4942.298
-18.595	26.126	7266.432	5271.459	6967.892	4939.673
-17.575	26.133	7260.125	5266.490	6954.306	4930.522
-16.555	26.131	7249.549	5258.538	6937.250	4916.403
-15.536	26.094	7241.709	5251.806	6921.437	4902.416
-14.516	26.083	7235.829	5247.264	6908.259	4891.271
-13.496	26.129	7228.670	5242.243	6898.000	4883.137
-12.476	26.120	7220.520	5236.207	6890.377	4876.643
-11.456	26.121	7210.405	5228.511	6881.824	4870.565
-10.436	26.120	7202.065	5221.860	6874.007	4865.473
-9.416	26.129	7196.542	5217.888	6868.367	4860.455
-8.396	26.109	7191.532	5214.810	6863.085	4856.734
-7.376	26.119	7186.255	5211.508	6862.187	4856.994
-6.356	26.112	7179.737	5206.445	6860.335	4857.734
-5.336	26.138	7170.466	5200.152	6849.138	4850.435
-4.316	26.123	7160.776	5191.610	6838.163	4840.584
-3.296	26.111	7153.635	5186.282	6831.296	4835.341
-2.276	26.114	7146.947	5181.482	6827.024	4830.375
-1.256	25.989	7140.474	5176.519	6825.189	4829.795
-0.236	25.484	7132.469	5170.161	6818.820	4825.210
0.784	25.492	7068.228	5130.947	6755.651	4789.304
1.804	25.666	6895.783	5012.050	6642.510	4694.321
2.824	24.852	6672.139	4823.598	6578.329	4615.701
3.844	24.049	6542.910	4699.458	6561.037	4588.208
4.864	23.580	6520.306	4674.203	6542.495	4570.992
5.884	23.364	6503.565	4654.602	6521.653	4548.854
6.904	23.271	6480.294	4620.302	6440.514	4493.182
7.924	23.105	6443.171	4588.086	6247.347	4359.180
8.944	21.717	6401.231	4575.708	6106.651	4255.313
9.964	19.553	6360.272	4546.520	6065.293	4221.775
10.984	16.924	6290.015	4384.661	6001.004	4072.429
12.004	14.807	6237.505	4234.614	5949.180	3931.853
13.024	14.682	6220.373	4216.160	5929.454	3912.931
14.044	14.784	6200.566	4207.513	5911.094	3904.578
15.064	14.773	6179.865	4194.186	5895.624	3893.628
16.084	14.767	6160.134	4181.833	5883.283	3885.646
17.104	14.750	6144.273	4170.515	5874.476	3879.679
18.124	14.831	6130.757	4162.803	5865.286	3874.579
19.144	15.959	6114.168	4152.787	5855.573	3867.888
20.164	19.833	6095.944	4141.850	5844.859	3861.527
21.184	24.637	6127.662	4237.454	5859.299	3894.700
22.204	29.778	6195.709	4513.375	5929.451	4137.319
23.224	32.952	6218.890	4692.637	5979.414	4372.053
24.244	33.130	6206.652	4693.367	5975.814	4398.141
25.264	33.124	6197.663	4685.965	5962.106	4389.793
26.284	33.145	6191.403	4682.610	5948.580	4377.734
27.304	33.151	6184.641	4679.805	5941.232	4372.691
28.324	32.435	6172.995	4672.163	5935.039	4368.030
29.344	28.638	6163.284	4662.429	5928.503	4362.433
30.364	24.976	6114.354	4579.035	5923.982	4359.733
31.384	22.002	6022.428	4289.197	5880.926	4284.253
32.404	20.862	6002.201	4164.260	5791.793	4012.933
33.424	23.059	6029.720	4288.421	5765.119	3891.836
34.443	23.686	6033.033	4320.856	5788.041	4003.779
35.463	23.327	6082.671	4336.482	5790.628	4032.708
36.483	23.396	6142.201	4385.103	5828.142	4041.437
37.503	23.699	6153.648	4415.770	5875.171	4080.741
38.523	22.452	6151.104	4418.289	5883.983	4106.321
39.543	20.054	6139.717	4405.343	5881.899	4109.024
40.563	17.115	6093.202	4284.220	5874.976	4099.103
41.583	14.499	6045.105	4123.837	5831.992	3989.017
42.603	13.612	6033.194	4070.797	5788.597	3842.339
43.623	13.606	6027.860	4066.482	5780.340	3794.032
44.643	13.609	6024.195	4062.523	5777.510	3791.042
45.663	13.609	6021.912	4060.404	5772.410	3787.155
46.683	13.606	6021.444	4059.589	5764.870	3781.211
47.703	13.640	6020.239	4059.165	5760.646	3776.915
48.723	13.650	6018.405	4058.453	5755.944	3773.816
49.743	13.650	6015.613	4056.378	5751.250	3770.297
50.763	13.650	6012.390	4053.448	5750.272	3768.357
51.783	13.900	6010.833	4051.598	5750.896	3768.867
52.803	14.095	6007.223	4050.027	5748.576	3767.967
53.823	14.223	6008.219	4070.158	5744.360	3765.519
54.843	14.093	6002.886	4072.390	5747.711	3784.716
55.863	13.615	5994.332	4044.926	5747.836	3790.130
56.883	13.389	5991.981	4033.352	5742.714	3769.186
57.903	13.335	5988.002	4029.610	5743.108	3760.971
58.923	13.275	5983.115	4024.654	5740.990	3757.588
59.943	13.234	5979.727	4019.404	5734.098	3752.339
60.963	13.219	5976.656	4015.045	5730.437	3746.205
61.983	13.195	5975.183	4014.504	5729.583	3743.415
63.003	12.635	5978.440	4018.875	5724.486	3741.328
64.023	11.636	5974.342	4015.211	5723.108	3741.413
65.043	10.316	5951.640	3960.580	5722.085	3738.172
66.063	9.066	5931.189	3891.141	5704.710	3692.897
67.083	8.447	5927.217	3868.283	5683.561	3629.081
68.103	7.804	5927.572	3865.375	5678.143	3604.518
69.123	7.005	5915.099	3843.569	5675.557	3600.535
70.143	6.228	5900.895	3800.412	5663.895	3580.511
71.163	5.736	5893.709	3771.536	5645.939	3538.141
72.183	5.661	5885.789	3764.582	5633.789	3506.000
73.203	5.651	5878.797	3759.064	5625.127	3498.406
74.223	5.611	5873.669	3753.143	5621.834	3495.195
75.243	5.641	5873.745	3754.408	5618.086	3492.184
76.263	5.634	5875.600	3755.153	5616.705	3493.140
77.283	5.674	5875.342	3757.088	5614.114	3491.205
78.303	5.670	5874.002	3755.488	5607.999	3487.863
79.323	5.648	5871.689	3753.177	5602.169	3482.484
80.343	5.755	5869.844	3752.727	5598.369	3478.782
81.363	6.225	5864.882	3748.740	5597.635	3479.114
82.383	6.858	5864.227	3752.787	5594.176	3476.396
83.403	7.649	5874.500	3787.878	5593.616	3478.610
84.422	8.223	5880.010	3819.685	5600.315	3509.237
85.442	8.250	5876.103	3822.177	5603.469	3537.227
86.462	8.188	5869.923	3816.036	5603.305	3542.174
87.482	8.139	5865.045	3808.013	5602.402	3540.575
88.502	8.144	5862.548	3806.510	5597.653	3534.530
89.522	8.126	5861.234	3807.757	5595.521	3532.908
90.542	8.031	5859.044	3805.530	5592.461	3533.547
91.562	7.920	5856.018	3799.485	5585.786	3527.226
92.582	7.951	5852.337	3792.984	5581.322	3520.122
93.602	8.047	5847.846	3790.463	5575.573	3512.665
94.622	8.131	5845.875	3792.328	5571.329	3508.536
95.642	8.261	5841.304	3792.331	5569.991	3510.096
96.662	8.419	5838.555	3791.536	5571.708	3514.872
